File: data/raman/r183.txt
#Wave		#Intensity
4002.1	15037.4
3992.31	15023.9
3982.5	14573.1
3972.67	14657.7
3962.82	15000.9
3952.94	14896.4
3943.04	14714.6
3933.12	14709.7
3923.18	14757.6
3913.21	14401.7
3903.22	14547.9
3893.21	14452.4
3883.18	14493.1
3873.12	14603.1
3863.04	14438.6
3852.94	14510
3842.82	14867.7
3832.67	14548.4
3822.5	14412.6
3812.31	14490.1
3802.1	14710.8
3791.86	14469.5
3781.6	14614.3
3771.31	14918.1
3761	14955.9
3750.67	14820.8
3740.32	15105
3729.94	15084.7
3719.54	15037.4
3709.12	15067.5
3698.67	15361.7
3688.2	15567.7
3677.71	15899.3
3667.19	15930.1
3656.65	16461.6
3646.09	17076.7
3635.5	18019.2
3624.88	18479.6
3614.25	19440.8
3603.59	19840
3592.9	20299.5
3582.2	20025.5
3571.46	20143.5
3560.71	20299.9
3549.93	20089
3539.12	19775.4
3528.29	20102.4
3517.44	20144.3
3506.56	19768.1
3495.66	19874.6
3484.74	19554.8
3473.79	19878.2
3462.81	19817.7
3451.81	19827.3
3440.79	19294.5
3429.74	19716.4
3418.66	19069.2
3407.56	19067.4
3396.44	19106.3
3385.29	19000.8
3374.11	19042.7
3362.92	18800.1
3351.69	18698.8
3340.44	18865.1
3329.17	19120.5
3317.87	18663
3306.54	18868.1
3295.19	19183
3283.81	18811.1
3272.41	19041.8
3260.98	18784.9
3249.53	18898.4
3238.05	18920
3226.54	19166.2
3215.01	19380.9
3203.45	19285.9
3191.87	19632
3180.26	19714.3
3168.62	19790.2
3156.96	19964.6
3145.28	19605.7
3133.56	19358.6
3121.82	19812.4
3110.05	19545
3098.26	19687.8
3086.44	19806.2
3074.59	19540.3
3062.72	19681.9
3050.82	19822.7
3038.89	20100.5
3026.94	19727.7
3014.96	19601.5
3002.95	20008.7
2990.91	19478.5
2978.85	19669.4
2966.76	19954.7
2954.64	19828.9
2942.5	20184.4
2930.33	20362.9
2918.13	20428.8
2905.9	20377
2893.65	20259.7
2881.36	19818.3
2869.05	20085.9
2856.71	20054.8
2844.35	20066
2831.96	19617.3
2819.53	19733.4
2807.08	19919
2794.6	19834.8
2782.1	19957.7
2769.56	19965.5
2757	20276.6
2744.41	20036.3
2731.79	19860.7
2719.14	19898.7
2706.46	19908.8
2693.75	19750.9
2681.02	19524.9
2668.25	19571
2655.46	19641.4
2642.64	19727.8
2629.79	19517.1
2616.91	19347.9
2604	19295.9
2591.06	19476.3
2578.09	19353.9
2565.09	19482.1
2552.06	19542.4
2539	19680.1
2525.92	19504.4
2512.8	19518.7
2499.65	19046.1
2486.47	19281.3
2473.27	19028.3
2460.03	19048.3
2446.76	19318.5
2433.46	19642.6
2420.13	19474.5
2406.78	19045.3
2393.39	18923.5
2379.97	18599
2366.52	18190
2353.03	17596
2339.52	17449.8
2325.98	17389.2
2312.4	17156.3
2298.8	16641.6
2285.16	16270.2
2271.49	16245.8
2257.79	16336.2
2244.06	15983
2230.3	15763.5
2216.51	15780.6
2202.68	15433.3
2188.82	15425.7
2174.93	15596.7
2161.01	15390.1
2147.06	15402.3
2133.07	15401.9
2119.05	15426.4
2105	15047.5
2090.92	14774.5
2076.81	14824.7
2062.66	14758.5
2048.48	14556.8
2034.27	14542.9
2020.02	14357.2
2005.74	14284.9
1991.43	13971
1977.09	13665.8
1962.71	13340
1948.29	13197.6
1933.85	13290.5
1919.37	13298.4
1904.86	13180.9
1890.31	12902.8
1875.74	13098.4
1861.12	12663.7
1846.48	12553.2
1831.79	12400.2
1817.08	11834.5
1802.33	11972.9
1787.55	11912
1772.73	11712.1
1757.88	11729.6
1742.99	11707
1728.07	11581.4
1713.11	11645.6
1698.12	11285
1683.09	11179.6
1668.03	11072.3
1652.93	10801
1637.8	10401.5
1622.63	10031.4
1607.43	9943.61
1592.19	9803.37
1576.91	9766.71
1561.6	9800.95
1546.26	9730.17
1530.88	9580.1
1515.46	9464.68
1500	9150.67
1484.51	8826.78
1468.98	8745.27
1453.42	8569.75
1437.82	8668.39
1422.18	8341.71
1406.51	8313.17
1390.8	8019.9
1375.05	7883.36
1359.26	8008.75
1343.44	8000.93
1327.58	8026.15
1311.68	7908.25
1295.75	7707.48
1279.77	7352.2
1263.76	7435.27
1247.71	7500.47
1231.63	7684.84
1215.5	7861.79
1199.34	8094.08
1183.14	8547.48
1166.9	9571.31
1150.62	10912.4
1134.3	12731.2
1117.95	15107.8
1101.55	17797.1
1085.12	18724.9
1068.64	17986.3
1052.13	15508.7
1035.58	13632
1018.99	12489.1
1002.36	11353.6
985.684	10517
968.973	9640.39
952.223	8772.08
935.43	8678.24
918.6	8526.61
901.727	8303.13
884.814	8109.6
867.861	7615.85
850.869	7239.61
833.834	6930.8
816.758	6928.49
799.641	7122.22
782.484	7457.6
765.285	7309.57
748.043	7249.39
730.762	7215.74
713.438	7832.01
696.07	8409.02
678.662	9621.83
661.213	10556.2
643.721	11915.8
626.186	13115.1
608.607	14543.3
590.988	16430.7
573.326	17879.4
555.619	18708.8
537.871	16341
520.08	14002.4
502.244	13888
484.365	13807.3
466.443	13664.5
448.477	13170
430.467	13011.7
412.414	12710.9
394.316	12351.5
376.174	12452.3
357.986	12464.2
339.756	12460.6
321.479	12057.1
303.158	11895.9
284.793	11514.6
266.383	11509.2
247.926	11615.4
229.424	11961.1
210.877	11839.3
192.285	12411.9
173.646	12764
154.963	13159.2
136.23	13851
117.455	14630.5
101.322	14731.4